# UVIMOS
# energy
# (ESO VLT VIMOS U:transmission is average of 4 quadrants)
       3334.300      0.012541
       3339.500      0.013329
       3344.800      0.014110
       3350.100      0.016080
       3355.400      0.017330
       3360.600      0.018541
       3365.900      0.020113
       3371.200      0.021555
       3376.500      0.022985
       3381.700      0.025158
       3387.000      0.026476
       3392.300      0.027880
       3397.500      0.029324
       3402.800      0.030902
       3408.100      0.032880
       3413.400      0.034997
       3418.600      0.036611
       3423.900      0.038624
       3429.200      0.040596
       3434.400      0.042590
       3439.700      0.044642
       3445.000      0.047102
       3450.300      0.049562
       3455.500      0.051219
       3460.800      0.053217
       3466.100      0.055266
       3471.300      0.057328
       3476.600      0.059367
       3481.900      0.061452
       3487.200      0.063451
       3492.400      0.065414
       3497.700      0.067325
       3503.000      0.069163
       3508.200      0.071090
       3513.500      0.073100
       3518.800      0.075102
       3524.100      0.076978
       3529.300      0.079079
       3534.600      0.081600
       3539.900      0.084094
       3545.200      0.086604
       3550.400      0.089111
       3555.700      0.091577
       3561.000      0.094097
       3566.200      0.096620
       3571.500      0.099100
       3576.800      0.101593
       3582.100      0.103992
       3587.300      0.106440
       3592.600      0.108862
       3597.900      0.111180
       3603.200      0.113519
       3608.400      0.115867
       3613.700      0.118071
       3619.000      0.120194
       3624.200      0.122379
       3629.500      0.124440
       3634.800      0.126389
       3640.100      0.128240
       3645.300      0.130147
       3650.600      0.131913
       3655.900      0.133564
       3661.100      0.135161
       3666.400      0.136753
       3671.700      0.138211
       3677.000      0.139600
       3682.200      0.140948
       3687.500      0.142235
       3692.800      0.143492
       3698.000      0.144615
       3703.300      0.145783
       3708.600      0.146991
       3713.900      0.148071
       3719.100      0.149117
       3724.400      0.150249
       3729.700      0.151459
       3735.000      0.152579
       3740.200      0.153699
       3745.500      0.155012
       3750.800      0.156300
       3756.000      0.157589
       3761.300      0.158974
       3766.600      0.160437
       3771.900      0.161933
       3777.100      0.163530
       3782.400      0.165143
       3787.700      0.166803
       3792.900      0.168513
       3798.200      0.170133
       3803.500      0.171839
       3808.800      0.173517
       3814.000      0.175167
       3819.300      0.176628
       3824.600      0.178067
       3829.800      0.179428
       3835.100      0.180467
       3840.400      0.181227
       3845.700      0.181886
       3850.900      0.182047
       3856.200      0.181781
       3861.500      0.181223
       3866.800      0.180049
       3872.000      0.178287
       3877.300      0.175901
       3882.600      0.172751
       3887.800      0.168808
       3893.100      0.163934
       3898.400      0.158169
       3903.700      0.151315
       3908.900      0.143808
       3914.200      0.135019
       3919.500      0.124240
       3924.700      0.112720
       3930.000      0.100623
       3935.300      0.089581
       3940.600      0.080411
       3945.800      0.071498
       3951.100      0.062625
       3956.400      0.053138
       3961.600      0.043160
       3966.900      0.032029
       3972.200      0.021748
       3977.500      0.013917
       3982.700      0.008050
       3988.000      0.004896
       3993.300      0.003172
       3998.600      0.002116
       4003.800      0.001499
       4009.100      0.000973
       4014.400      0.000646
       4019.600      0.000458
       4024.900      0.000295
       4030.200      0.000195
       4035.500      0.000155
       4040.700      0.000127
       4046.000      0.000085
       4051.300      0.000059
       4056.500      0.000060
       4061.800      0.000051
       4067.100      0.000039
       4072.400      0.000047
       4077.600      0.000036
       4082.900      0.000042
       4088.200      0.000044
       4093.500      0.000042
       4098.700      0.000029
       4104.000      0.000023
       4109.300      0.000023
       4114.500      0.000026
       4119.800      0.000037
       4125.100      0.000035
       4130.400      0.000030
       4135.600      0.000016
       4140.900      0.000025
       4146.200      0.000020
       4151.400      0.000027
       4156.700      0.000019
       4162.000      0.000030
       4167.200      0.000023
       4172.500      0.000024
       4177.800      0.000024
       4183.100      0.000027
       4188.300      0.000028
       4193.600      0.000020
       4198.900      0.000023
       4204.200      0.000029
       4209.400      0.000024
       4214.700      0.000019
       4220.000      0.000019
       4225.200      0.000020
       4230.500      0.000023
       4235.800      0.000016
       4241.100      0.000019
       4246.300      0.000027
       4251.600      0.000022
       4256.900      0.000021
       4262.200      0.000021
       4267.400      0.000014
       4272.700      0.000017
       4278.000      0.000017
       4283.200      0.000023
       4288.500      0.000027
       4293.800      0.000023
       4299.100      0.000021
       4304.300      0.000032
       4309.600      0.000028
       4314.900      0.000034
       4320.100      0.000033
       4325.400      0.000026
       4330.700      0.000026
       4336.000      0.000016
       4341.200      0.000027
       4346.500      0.000034
       4351.800      0.000025
       4357.100      0.000027
       4362.300      0.000020
       4367.600      0.000014
       4372.900      0.000020
       4378.100      0.000023
       4383.400      0.000021
       4388.700      0.000024
       4393.900      0.000018
       4399.200      0.000023
       4404.500      0.000013
       4409.800      0.000012
       4415.000      0.000014
       4420.300      0.000028
       4425.600      0.000021
       4430.900      0.000019
       4436.100      0.000017
       4441.400      0.000017
       4446.700      0.000018
       4451.900      0.000020
       4457.200      0.000019
       4462.500      0.000013
       4467.800      0.000019
       4473.000      0.000022
       4478.300      0.000014
       4483.600      0.000012
       4488.900      0.000015
       4494.100      0.000019
       4499.400      0.000025
       4504.700      0.000020
       4509.900      0.000021
       4515.200      0.000022
       4520.500      0.000019
       4525.800      0.000015
       4531.000      0.000011
       4536.300      0.000016
       4541.600      0.000016
       4546.800      0.000017
       4552.100      0.000022
       4557.400      0.000024
       4562.700      0.000017
       4567.900      0.000012
       4573.200      0.000012
       4578.500      0.000012
       4583.700      0.000015
       4589.000      0.000011
       4594.300      0.000011
       4599.600      0.000021
       4604.800      0.000019
       4610.100      0.000012
       4615.400      0.000017
       4620.700      0.000017
       4625.900      0.000015
       4631.200      0.000019
       4636.500      0.000013
       4641.700      0.000019
       4647.000      0.000016
       4652.300      0.000016
       4657.600      0.000012
       4662.800      0.000013
       4668.100      0.000011
       4673.400      0.000007
       4678.600      0.000011
       4683.900      0.000013
       4689.200      0.000011
       4694.500      0.000015
       4699.700      0.000016
       4705.000      0.000011
       4710.300      0.000009
       4715.600      0.000008
       4720.800      0.000012
       4726.100      0.000018
       4731.400      0.000017
       4736.600      0.000015
       4741.900      0.000011
       4747.200      0.000016
       4752.400      0.000017
       4757.700      0.000019
       4763.000      0.000017
       4768.300      0.000012
       4773.500      0.000010
       4778.800      0.000012
       4784.100      0.000011
       4789.400      0.000019
       4794.600      0.000018
       4799.900      0.000012
       4805.200      0.000020
       4810.400      0.000013
       4815.700      0.000017
       4821.000      0.000025
       4826.300      0.000026
       4831.500      0.000031
       4836.800      0.000038
       4842.100      0.000044
       4847.400      0.000048
       4852.600      0.000030
       4857.900      0.000031
       4863.200      0.000032
       4868.400      0.000024
       4873.700      0.000018
       4879.000      0.000015
       4884.200      0.000018
       4889.500      0.000017
       4894.800      0.000019
       4900.100      0.000014
       4905.300      0.000018
       4910.600      0.000022
       4915.900      0.000015
       4921.200      0.000017
       4926.400      0.000014
       4931.700      0.000019
       4937.000      0.000022
       4942.200      0.000013
       4947.500      0.000017
       4952.800      0.000021
       4958.100      0.000022
       4963.300      0.000017
       4968.600      0.000011
       4973.900      0.000017
       4979.200      0.000023
       4984.400      0.000016
       4989.700      0.000019
       4995.000      0.000017
       5000.200      0.000014
       5005.500      0.000020
       5010.800      0.000021
       5016.100      0.000010
       5021.300      0.000013
       5026.600      0.000019
       5031.900      0.000012
       5037.100      0.000016
       5042.400      0.000013
       5047.700      0.000011
       5053.000      0.000014
       5058.200      0.000013
       5063.500      0.000012
       5068.800      0.000018
       5074.000      0.000017
       5079.300      0.000010
       5084.600      0.000011
       5089.900      0.000018
       5095.100      0.000018
       5100.400      0.000018
       5105.700      0.000014
       5110.900      0.000015
       5116.200      0.000012
       5121.500      0.000016
       5126.800      0.000011
       5132.000      0.000011
       5137.300      0.000018
       5142.600      0.000018
       5147.900      0.000020
       5153.100      0.000017
       5158.400      0.000020
       5163.700      0.000020
       5168.900      0.000016
       5174.200      0.000014
       5179.500      0.000018
       5184.800      0.000019
       5190.000      0.000017
       5195.300      0.000015
       5200.600      0.000019
       5205.900      0.000017
       5211.100      0.000012
       5216.400      0.000011
       5221.700      0.000016
       5226.900      0.000016
       5232.200      0.000013
       5237.500      0.000014
       5242.800      0.000014
       5248.000      0.000018
       5253.300      0.000010
       5258.600      0.000017
       5263.800      0.000022
       5269.100      0.000024
       5274.400      0.000024
       5279.700      0.000017
       5284.900      0.000016
       5290.200      0.000011
       5295.500      0.000017
       5300.700      0.000022
       5306.000      0.000022
       5311.300      0.000014
       5316.600      0.000015
       5321.800      0.000018
       5327.100      0.000020
       5332.400      0.000016
       5337.700      0.000015
       5342.900      0.000016
       5348.200      0.000017
       5353.500      0.000014
       5358.700      0.000015
       5364.000      0.000019
       5369.300      0.000020
       5374.600      0.000013
       5379.800      0.000014
       5385.100      0.000020
       5390.400      0.000016
       5395.600      0.000019
       5400.900      0.000019
       5406.200      0.000014
       5411.400      0.000016
       5416.700      0.000012
       5422.000      0.000022
       5427.300      0.000028
       5432.500      0.000019
       5437.800      0.000014
       5443.100      0.000017
       5448.400      0.000018
       5453.600      0.000021
       5458.900      0.000012
       5464.200      0.000019
       5469.400      0.000014
       5474.700      0.000020
       5480.000      0.000025
       5485.300      0.000023
       5490.500      0.000012
       5495.800      0.000017
       5501.100      0.000017
       5506.400      0.000021
       5511.600      0.000018
       5516.900      0.000014
       5522.200      0.000021
       5527.400      0.000014
       5532.700      0.000015
       5538.000      0.000013
       5543.300      0.000011
       5548.500      0.000013
       5553.800      0.000017
       5559.100      0.000018
       5564.300      0.000015
       5569.600      0.000014
       5574.900      0.000014
       5580.200      0.000017
       5585.400      0.000023
       5590.700      0.000022
       5596.000      0.000017
       5601.200      0.000020
       5606.500      0.000017
       5611.800      0.000016
       5617.100      0.000014
       5622.300      0.000016
       5627.600      0.000016
       5632.900      0.000011
       5638.200      0.000019
       5643.400      0.000014
       5648.700      0.000012
       5654.000      0.000021
       5659.200      0.000017
       5664.500      0.000009
       5669.800      0.000019
       5675.100      0.000016
       5680.300      0.000028
       5685.600      0.000022
       5690.900      0.000016
       5696.100      0.000020
       5701.400      0.000020
       5706.700      0.000019
       5712.000      0.000017
       5717.200      0.000018
       5722.500      0.000011
       5727.800      0.000016
       5733.100      0.000021
       5738.300      0.000014
       5743.600      0.000015
       5748.900      0.000014
       5754.100      0.000013
       5759.400      0.000013
       5764.700      0.000014
       5769.900      0.000012
       5775.200      0.000007
       5780.500      0.000017
       5785.800      0.000011
       5791.000      0.000012
       5796.300      0.000019
       5801.600      0.000011
       5806.900      0.000017
       5812.100      0.000016
       5817.400      0.000019
       5822.700      0.000018
       5827.900      0.000017
       5833.200      0.000024
       5838.500      0.000015
       5843.800      0.000013
       5849.000      0.000015
       5854.300      0.000013
       5859.600      0.000017
       5864.900      0.000014
       5870.100      0.000016
       5875.400      0.000014
       5880.700      0.000016
       5885.900      0.000012
       5891.200      0.000013
       5896.500      0.000021
       5901.800      0.000015
       5907.000      0.000014
       5912.300      0.000020
       5917.600      0.000020
       5922.800      0.000021
       5928.100      0.000017
       5933.400      0.000012
       5938.700      0.000015
       5943.900      0.000022
       5949.200      0.000023
       5954.500      0.000015
       5959.800      0.000022
       5965.000      0.000017
       5970.300      0.000016
       5975.600      0.000029
       5980.800      0.000043
       5986.100      0.000058
       5991.400      0.000067
       5996.700      0.000075
